v/(nD)	v/(ΩR)	Ct	Cp	Cs	Tc	Pc	η	η*	stalled	v	rpm	Power	Thrust	Torque
[-]	[-]	[-]	[-]	[-]	[-]	[-]	[%]	[%]	[%]	[m/s]	[1/min]	[MW]	[kN]	[kNm]
0.000	0.000	0.084650	0.661091	0.000034	9.999999	9.999999	0.00	0.01	97.00 !	0.00	2200	4.421	6.019	19.192
0.100	0.032	0.049186	0.258575	0.131064	9.999999	9.999999	1.90	42.49	97.00 !	9.41	2200	1.729	3.497	7.507
0.200	0.064	0.054491	0.288788	0.256398	3.469011	9.999999	3.77	63.77	97.00	18.81	2200	1.931	3.874	8.384
0.300	0.095	0.057661	0.309143	0.379393	1.631475	9.999999	5.60	75.70	97.00	28.22	2200	2.068	4.100	8.975
0.400	0.127	0.060071	0.328458	0.499763	0.956054	9.999999	7.32	82.74	97.00	37.63	2200	2.197	4.271	9.535
0.500	0.159	0.061957	0.347372	0.617747	0.631086	7.076608	8.92	87.13	97.00	47.03	2200	2.323	4.405	10.084
0.600	0.191	0.063372	0.366344	0.733455	0.448262	4.318920	10.38	90.03	97.00	56.44	2200	2.450	4.506	10.635
0.700	0.223	0.064571	0.385586	0.846981	0.335569	2.862641	11.72	92.01	95.00	65.85	2200	2.579	4.591	11.194
0.800	0.255	0.065375	0.405703	0.958183	0.260117	2.017802	12.89	93.43	95.00	75.25	2200	2.713	4.648	11.778
0.900	0.286	0.066284	0.426438	1.067262	0.208385	1.489598	13.99	94.46	95.00	84.66	2200	2.852	4.713	12.380
1.000	0.318	0.067004	0.448562	1.173912	0.170625	1.142255	14.94	95.23	92.00	94.06	2200	3.000	4.764	13.022
1.100	0.350	0.067904	0.471558	1.278456	0.142905	0.902188	15.84	95.82	92.00	103.47	2200	3.154	4.828	13.690
1.200	0.382	0.069107	0.496292	1.380492	0.122207	0.731364	16.71	96.25	83.00	112.88	2200	3.319	4.914	14.408
1.300	0.414	0.071844	0.525336	1.478618	0.108254	0.608901	17.78	96.53	80.00	122.28	2200	3.514	5.108	15.251
1.400	0.446	0.079784	0.567239	1.568104	0.103657	0.526407	19.69	96.53	80.00	131.69	2200	3.794	5.673	16.467
1.500	0.477	0.087014	0.610671	1.655502	0.098480	0.460759	21.37	96.56	80.00	141.10	2200	4.084	6.187	17.728
1.600	0.509	0.093840	0.654112	1.741765	0.093345	0.406661	22.95	96.59	80.00	150.50	2200	4.375	6.672	18.989
1.700	0.541	0.099857	0.698652	1.826403	0.087988	0.362122	24.30	96.63	77.00	159.91	2200	4.673	7.100	20.282
1.800	0.573	0.105530	0.743058	1.910152	0.082941	0.324448	25.56	96.67	77.00	169.32	2200	4.970	7.503	21.571
1.900	0.605	0.110769	0.787430	1.993018	0.078136	0.292342	26.73	96.72	77.00	178.72	2200	5.266	7.876	22.859
2.000	0.637	0.115615	0.830646	2.075615	0.073603	0.264403	27.84	96.76	73.00	188.13	2200	5.555	8.220	24.114
2.100	0.668	0.121013	0.862881	2.162863	0.069877	0.237265	29.45	96.78	73.00	197.54	2200	5.771	8.604	25.050
2.200	0.700	0.126927	0.877674	2.258167	0.066780	0.209896	31.82	96.77	73.00	206.94	2200	5.870	9.025	25.479
2.300	0.732	0.132652	0.893380	2.352451	0.063855	0.186979	34.15	96.77	73.00	216.35	2200	5.975	9.432	25.935
2.400	0.764	0.138106	0.910113	2.445638	0.061056	0.167649	36.42	96.76	69.00	225.76	2200	6.087	9.820	26.421
2.500	0.796	0.143274	0.927952	2.537668	0.058375	0.151233	38.60	96.76	69.00	235.16	2200	6.206	10.187	26.939
2.600	0.828	0.148188	0.946769	2.628600	0.055822	0.137172	40.69	96.76	69.00	244.57	2200	6.332	10.536	27.485
2.700	0.859	0.152721	0.966031	2.718727	0.053347	0.124980	42.68	96.76	69.00	253.97	2200	6.461	10.859	28.044
2.800	0.891	0.156889	0.986127	2.807834	0.050958	0.114393	44.55	96.76	69.00	263.38	2200	6.595	11.155	28.628
2.900	0.923	0.161078	1.007071	2.895916	0.048773	0.105149	46.38	96.76	64.00	272.79	2200	6.735	11.453	29.236
3.000	0.955	0.164881	1.028820	2.983001	0.046652	0.097032	48.08	96.76	64.00	282.19	2200	6.881	11.723	29.867
3.100	0.987	0.168375	1.051333	3.069118	0.044616	0.089866	49.65	96.76	64.00	291.60	2200	7.031	11.972	30.521
3.200	1.019	0.171643	1.074367	3.154419	0.042684	0.083492	51.12	96.76	64.00	301.01	2200	7.186	12.204	31.189
3.300	1.050	0.174942	1.097720	3.239035	0.040908	0.077784	52.59	96.76	59.00	310.41	2200	7.342	12.439	31.867
3.400	1.082	0.177788	1.121783	3.322746	0.039164	0.072680	53.89	96.77	59.00	319.82	2200	7.503	12.641	32.566
3.500	1.114	0.180437	1.146438	3.405634	0.037508	0.068090	55.09	96.77	59.00	329.23	2200	7.668	12.829	33.282
3.600	1.146	0.183330	1.171578	3.487774	0.036022	0.063945	56.33	96.77	59.00	338.63	2200	7.836	13.035	34.011
3.700	1.178	0.185813	1.198063	3.568665	0.034563	0.060230	57.38	96.77	59.00	348.04	2200	8.013	13.212	34.780
3.800	1.210	0.188051	1.224785	3.648981	0.033163	0.056839	58.34	96.78	53.00	357.45	2200	8.192	13.371	35.556
3.900	1.241	0.190036	1.251544	3.728854	0.031816	0.053727	59.22	96.78	53.00	366.85	2200	8.370	13.512	36.333
4.000	1.273	0.192540	1.278819	3.808011	0.030644	0.050883	60.22	96.78	53.00	376.26	2200	8.553	13.690	37.125
4.100	1.305	0.194535	1.307675	3.885831	0.029469	0.048316	60.99	96.78	53.00	385.67	2200	8.746	13.832	37.962
4.200	1.337	0.196418	1.337200	3.962872	0.028355	0.045961	61.69	96.78	47.00	395.07	2200	8.943	13.966	38.820
4.300	1.369	0.200058	1.367412	4.039137	0.027552	0.043796	62.91	96.76	40.00	404.48	2200	9.145	14.224	39.697
4.400	1.401	0.206378	1.399177	4.114131	0.027146	0.041827	64.90	96.69	9.00	413.88	2200	9.358	14.674	40.619
4.500	1.432	0.210927	1.437089	4.185196	0.026525	0.040159	66.05	96.64	0.00	423.29	2200	9.611	14.997	41.719
4.600	1.464	0.214426	1.474932	4.256018	0.025805	0.038587	66.87	96.61	0.00	432.70	2200	9.865	15.246	42.818
4.700	1.496	0.217558	1.511716	4.327169	0.025080	0.037078	67.64	96.59	0.00	442.10	2200	10.111	15.469	43.886
4.800	1.528	0.220357	1.547514	4.398599	0.024355	0.035633	68.35	96.57	0.00	451.51	2200	10.350	15.668	44.925
4.900	1.560	0.222845	1.582372	4.470276	0.023635	0.034250	69.01	96.56	0.00	460.92	2200	10.583	15.845	45.937
5.000	1.592	0.224967	1.615910	4.542413	0.022915	0.032919	69.61	96.55	0.00	470.32	2200	10.807	15.996	46.911
5.100	1.623	0.226691	1.647661	4.615264	0.022194	0.031630	70.17	96.54	0.00	479.73	2200	11.020	16.118	47.832
5.200	1.655	0.228189	1.678648	4.688257	0.021490	0.030401	70.69	96.54	0.00	489.14	2200	11.227	16.225	48.732
5.300	1.687	0.229487	1.708961	4.761343	0.020804	0.029231	71.17	96.54	0.00	498.54	2200	11.430	16.317	49.612
5.400	1.719	0.230598	1.738700	4.834469	0.020138	0.028118	71.62	96.54	0.00	507.95	2200	11.629	16.396	50.475
5.500	1.751	0.231538	1.767890	4.907628	0.019491	0.027059	72.03	96.54	0.00	517.36	2200	11.824	16.463	51.323
5.600	1.783	0.232259	1.796334	4.980932	0.018860	0.026047	72.41	96.55	0.00	526.76	2200	12.014	16.514	52.148
5.700	1.814	0.232631	1.822944	5.054989	0.018233	0.025066	72.74	96.56	0.00	536.17	2200	12.192	16.540	52.921
5.800	1.846	0.232879	1.849178	5.128995	0.017628	0.024134	73.04	96.57	0.00	545.58	2200	12.368	16.558	53.683
5.900	1.878	0.233000	1.875132	5.202902	0.017045	0.023250	73.31	96.58	0.00	554.98	2200	12.541	16.567	54.436
6.000	1.910	0.232997	1.900839	5.276698	0.016481	0.022409	73.55	96.60	0.00	564.39	2200	12.713	16.566	55.182
6.100	1.942	0.232871	1.926375	5.350344	0.015937	0.021612	73.74	96.61	0.00	573.79	2200	12.884	16.557	55.924
6.200	1.974	0.232587	1.951724	5.423854	0.015408	0.020854	73.89	96.63	0.00	583.20	2200	13.053	16.537	56.659
6.300	2.005	0.231471	1.972221	5.499832	0.014851	0.020085	73.94	96.66	0.00	592.61	2200	13.190	16.458	57.255
6.400	2.037	0.228829	1.982435	5.581362	0.014226	0.019257	73.87	96.71	0.00	602.01	2200	13.259	16.270	57.551
6.420	2.044	0.228189	1.983668	5.598108	0.014098	0.019090	73.85	96.72	0.00	603.90	2200	13.267	16.225	57.587
6.440	2.050	0.227545	1.984884	5.614859	0.013971	0.018924	73.83	96.73	0.00	605.78	2200	13.275	16.179	57.622
6.460	2.056	0.226901	1.986083	5.631616	0.013846	0.018760	73.80	96.74	0.00	607.66	2200	13.283	16.133	57.657
6.480	2.063	0.226249	1.987243	5.648392	0.013721	0.018598	73.78	96.75	0.00	609.54	2200	13.291	16.087	57.691
6.500	2.069	0.225473	1.987470	5.665696	0.013590	0.018429	73.74	96.76	0.00	611.42	2200	13.292	16.032	57.697
6.520	2.075	0.224690	1.987592	5.683059	0.013459	0.018261	73.71	96.78	0.00	613.30	2200	13.293	15.976	57.701
6.540	2.082	0.223904	1.987676	5.700443	0.013331	0.018095	73.67	96.79	0.00	615.18	2200	13.294	15.920	57.703
6.560	2.088	0.223119	1.987736	5.717841	0.013203	0.017930	73.63	96.80	0.00	617.06	2200	13.294	15.864	57.705
6.580	2.094	0.222333	1.987767	5.735256	0.013077	0.017768	73.60	96.82	0.00	618.95	2200	13.294	15.808	57.706
6.600	2.101	0.221544	1.987764	5.752690	0.012951	0.017607	73.56	96.83	0.00	620.83	2200	13.294	15.752	57.706
6.620	2.107	0.220752	1.987722	5.770147	0.012827	0.017447	73.52	96.84	0.00	622.71	2200	13.294	15.696	57.705
6.640	2.114	0.219965	1.987658	5.787616	0.012705	0.017289	73.48	96.86	0.00	624.59	2200	13.294	15.640	57.703
6.660	2.120	0.219172	1.987556	5.805109	0.012583	0.017133	73.44	96.87	0.00	626.47	2200	13.293	15.583	57.700
6.680	2.126	0.218378	1.987419	5.822622	0.012462	0.016979	73.40	96.88	0.00	628.35	2200	13.292	15.527	57.696
6.700	2.133	0.217582	1.987254	5.840152	0.012343	0.016826	73.36	96.89	0.00	630.23	2200	13.291	15.470	57.691
6.720	2.139	0.216787	1.987063	5.857697	0.012225	0.016674	73.31	96.91	0.00	632.11	2200	13.290	15.414	57.685
6.740	2.145	0.215991	1.986827	5.875271	0.012108	0.016524	73.27	96.92	0.00	634.00	2200	13.288	15.357	57.679
6.760	2.152	0.215195	1.986575	5.892854	0.011992	0.016376	73.23	96.93	0.00	635.88	2200	13.286	15.301	57.671
6.780	2.158	0.214398	1.986281	5.910464	0.011877	0.016229	73.18	96.95	0.00	637.76	2200	13.285	15.244	57.663
6.800	2.165	0.213596	1.985956	5.928093	0.011763	0.016084	73.14	96.96	0.00	639.64	2200	13.282	15.187	57.653
6.820	2.171	0.212794	1.985599	5.945742	0.011650	0.015940	73.09	96.97	0.00	641.52	2200	13.280	15.130	57.643
6.840	2.177	0.211992	1.985215	5.963409	0.011538	0.015797	73.04	96.99	0.00	643.40	2200	13.277	15.073	57.632
6.860	2.184	0.211190	1.984795	5.981099	0.011428	0.015656	72.99	97.00	0.00	645.28	2200	13.275	15.016	57.620
6.880	2.190	0.210386	1.984349	5.998806	0.011318	0.015516	72.94	97.01	0.00	647.16	2200	13.272	14.959	57.607
6.900	2.196	0.209579	1.983863	6.016539	0.011210	0.015378	72.89	97.03	0.00	649.05	2200	13.268	14.901	57.592
6.920	2.203	0.208771	1.983345	6.034294	0.011102	0.015241	72.84	97.04	0.00	650.93	2200	13.265	14.844	57.577
6.940	2.209	0.207962	1.982795	6.052070	0.010995	0.015106	72.79	97.05	0.00	652.81	2200	13.261	14.786	57.561
6.960	2.215	0.207152	1.982212	6.069868	0.010890	0.014971	72.74	97.06	0.00	654.69	2200	13.257	14.729	57.545
6.980	2.222	0.206344	1.981589	6.087692	0.010785	0.014838	72.68	97.08	0.00	656.57	2200	13.253	14.671	57.526
7.000	2.228	0.205535	1.980929	6.105543	0.010681	0.014707	72.63	97.09	0.00	658.45	2200	13.249	14.614	57.507
7.020	2.235	0.204725	1.980260	6.123400	0.010579	0.014576	72.57	97.10	0.00	660.33	2200	13.244	14.556	57.488
7.040	2.241	0.203910	1.979548	6.141288	0.010477	0.014447	72.52	97.12	0.00	662.22	2200	13.239	14.498	57.467
7.060	2.247	0.203099	1.978802	6.159199	0.010376	0.014320	72.46	97.13	0.00	664.10	2200	13.235	14.441	57.446
7.080	2.254	0.202282	1.978025	6.177132	0.010276	0.014193	72.40	97.14	0.00	665.98	2200	13.229	14.383	57.423
7.100	2.260	0.201465	1.977214	6.195090	0.010177	0.014068	72.34	97.15	0.00	667.86	2200	13.224	14.324	57.399
7.120	2.266	0.200646	1.976373	6.213070	0.010079	0.013943	72.28	97.17	0.00	669.74	2200	13.218	14.266	57.375
